time[ms],R1[ohm]
2,9287.79
1004,9251.56
2008,9287.79
3010,9215.45
4014,9215.45
5016,8792.67
6020,8792.67
7022,8388.26
8026,8001.06
9028,7969.54
10032,7690.77
11034,7361.69
12038,7509.72
13040,7361.69
14044,7420.60
15046,7130.03
16050,7101.52
17052,7044.76
18056,6988.39
19058,6960.35
20062,6739.32
21064,6876.78
22068,6876.78
23070,6766.63
24074,6794.03
25076,6739.32
26080,6577.34
27082,6739.32
28086,6684.98
29088,6684.98
30092,6630.98
31094,6684.97
32098,6712.10
33101,6577.34
34104,6550.65
35107,6630.98
36110,6524.05
37113,6630.98
38116,6524.05
39119,6550.65
40122,6471.10
41125,6418.50
42128,6444.76
43131,6712.10
44134,6444.76
45137,6471.10
46140,6340.22
47143,6471.10
48146,6418.50
49149,6288.46
50152,6418.50
51155,6471.10
52158,6392.32
53161,6550.65
54164,6418.50
55168,6340.23
56170,6577.34
57174,6392.32
58177,6392.32
59180,6577.34
60183,6471.10
61186,6340.23
62189,6392.32
63192,6604.12
64195,6366.23
65198,6418.50
66201,6340.22
67204,6314.30
68207,6314.30
69210,6185.92
70213,6237.03
71216,6262.70
72219,6392.32
73222,6288.46
74225,6211.44
75228,6340.22
76231,6314.30
77234,6288.46
78237,6135.14
79240,6262.70
80243,6288.46
81246,6185.92
82249,6288.46
83253,6288.46
84255,6392.32
85259,6185.92
86261,6237.03
87265,6314.30
88267,6109.87
89271,6211.44
90273,6340.22
91277,6262.70
92279,6109.87
93283,6314.30
94285,6262.70
95289,6185.92
96291,6059.57
97295,6211.44
98297,6262.70
99301,6288.46
100303,6211.44
101307,6340.22
102309,6135.14
103313,6237.03
104316,6237.03
105319,6211.44
106322,6185.92
107325,6392.32
108328,6059.57
109331,6211.44
110334,6160.49
111338,6160.49
112340,6135.14
113344,6314.30
114347,6185.92
115350,6185.92
116353,6288.46
117356,6340.22
118359,6135.14
119362,6237.03
120366,6211.43
121368,6160.49
122372,6034.54
123374,6237.03
124378,6185.92
125380,6135.14
126384,6109.87
127387,6084.68
128390,6237.03
129393,6185.92
130396,6211.44
131399,6185.92
132402,6288.46
133405,6160.49
134408,6185.92
135411,6059.57
136415,6185.92
137417,6185.92
138421,6185.92
139423,6160.49
140427,6366.23
141429,6211.44
142433,6084.68
143435,5984.72
144439,6034.54
145442,6185.92
146445,6160.49
147448,5984.72
148451,5935.20
149454,6135.14
150457,6084.68
151460,6009.59
152464,6288.46
153466,6135.14
154470,6185.92
155472,6034.54
156476,6418.50
157478,6135.14
158482,6135.14
159485,6109.87
160488,5935.20
161491,6109.87
162494,6109.87
163497,6211.44
164500,6262.70
165504,6160.49
166506,6135.14
167510,6185.92
168513,6237.03
169516,6135.14
170519,6084.68
171522,6135.14
172525,6160.49
173528,6109.87
174531,6135.14
175535,5959.92
176537,6185.92
177541,6135.14
178543,6288.46
179547,6009.59
180549,6109.87
181553,6135.14
182555,6211.44
183559,6160.49
184562,6135.14
185565,5959.92
186568,6059.57
187571,6084.68
188574,6034.54
189577,6185.92
190580,6109.87
191584,6109.87
192586,5935.20
193590,5984.72
194592,6084.68
195596,6109.87
196598,6314.30
197602,6109.87
198604,6059.57
199608,6160.49
200611,5959.92
201614,6109.87
202617,6109.87
203620,5886.00
204623,5959.92
205626,6084.68
206629,6160.49
207633,5837.10
208635,6034.54
209639,6109.87
210641,5886.00
211645,6109.87
212647,6084.68
213651,5959.92
214654,6135.14
215657,6059.57
216660,6135.14
217663,6084.68
218667,6059.57
219669,6084.68
220673,6009.59
221675,6084.68
222679,6009.59
223682,6059.57
224685,6160.49
225688,6009.59
226691,5984.72
227694,6314.30
228697,5959.92
229700,6059.57
230704,5910.56
231706,6059.57
232710,6034.54
233712,6009.59
234716,6109.87
235718,6109.87
236722,6288.46
237724,6059.57
238728,6185.92
239731,6009.59
240734,6084.68
241737,5935.20
242740,6034.54
243743,6059.57
244746,6034.54
245749,6009.59
246753,6059.57
247755,5984.72
248759,6034.54
249761,6084.68
250765,6084.68
251767,6084.68
252771,5812.77
253774,6059.57
254777,6059.57
255780,5935.20
256783,6034.54
257786,6009.59
258789,6340.22
259792,6009.59
260795,6034.54
261798,6034.54
262802,5984.72
263804,6034.54
264808,6084.68
265810,5959.92
266814,6034.54
267816,6059.57
268820,6034.54
269824,6135.14
270826,6059.57
271830,6034.54
272832,6059.57
273836,6314.30
274838,6059.57
275842,6034.54
276844,6059.57
277848,6211.44
278851,6059.57
279854,6034.54
280857,6084.68
281860,5886.00
282863,5959.92
283866,6059.57
284869,6034.54
285873,6009.59
286875,6160.49
287879,6059.57
288881,6034.54
289885,6084.68
290887,5861.51
291891,6059.57
292894,6009.59
293897,6059.57
294900,6185.92
295903,5959.92
296906,5984.72
297909,6059.57
298912,6034.54
299915,6034.54
300918,6237.03
301922,5984.72
302924,6009.59
303928,6009.59
304930,5837.10
305934,6009.59
306936,6009.59
307940,6009.59
308943,5812.77
309946,5984.72
310949,6009.59
311952,5959.92
312955,5812.77
313958,6059.57
314961,6009.59
315964,6185.92
316967,6009.59
317971,5959.92
318973,6160.49
319977,5886.00
320979,6059.57
321983,5984.72
322985,5910.56
323989,5984.72
324993,6009.59
325995,6009.59
326999,6059.57
328001,5910.56
329005,6009.59
330007,5984.72
331011,5812.77
332014,6009.59
333017,5935.20
334020,6009.59
335023,5812.77
336026,6084.68
337029,6009.59
338032,5984.72
339035,6009.59
340038,5837.10
341042,5935.20
342044,5984.72
343048,6084.68
344050,6211.44
345054,5959.92
346056,6009.59
347060,5959.92
348063,6034.54
349066,6009.59
350069,5935.20
351072,6034.54
352075,5886.00
353078,5984.72
354081,5959.92
355084,5959.92
356087,6059.57
357091,5935.20
358093,5984.72
359097,6009.59
360099,5764.33
361103,5910.56
362105,6009.59
363109,5984.72
364112,6109.87
365115,6288.46
366118,6009.59
367121,5935.20
368124,5935.20
369127,5861.51
370130,5861.51
371134,5959.92
372136,6009.59
373140,6185.92
374142,6185.92
375146,5959.92
376148,5935.20
377152,5959.92
378155,5837.10
379158,5959.92
380162,5959.92
381164,5984.72
382168,5935.20
383170,6211.44
384174,5910.56
385176,5959.92
386180,6034.54
387183,6160.49
388186,6160.49
389189,5935.20
390192,5984.72
391195,6009.59
392198,5837.10
393201,6185.92
394205,5959.92
395207,5984.72
396211,6009.59
397213,6084.68
398217,6160.49
399219,6009.59
400223,6034.54
401225,5910.56
402229,5764.33
403232,5935.20
404235,5959.92
405238,6009.59
406241,6135.14
407244,6109.87
408247,5984.72
409250,6009.59
410254,6160.49
411256,6135.14
412260,5959.92
413262,5910.56
414266,6109.87
415268,6059.57
416272,5984.72
417275,5984.72
418278,6059.57
419281,5959.92
420284,5910.56
421287,6109.87
422290,5861.51
423293,5935.20
424296,6135.14
425299,5910.56
426303,5984.72
427305,5861.51
428309,5959.92
429312,5935.20
430315,6084.68
431318,5910.56
432321,5959.92
433325,5764.33
434327,6009.59
435331,5984.72
436333,5740.22
437337,5935.20
438339,5935.20
439343,5812.77
440346,5935.20
441349,5935.20
442352,6211.44
443355,5935.20
444358,5984.72
445361,6009.59
446364,5935.20
447367,5935.20
448370,6135.14
449374,5935.20
450376,5935.20
451380,5764.33
452382,5959.92
453386,5935.20
454388,5837.10
455392,5910.56
456395,5910.56
457398,6109.87
458401,5935.20
459404,6185.92
460407,5959.92
461410,5910.56
462413,5812.77
463417,5910.56
464419,5935.20
465423,5812.77
466425,5935.20
467429,5984.72
468431,6160.49
469435,5984.72
470437,6135.14
471441,5984.72
472444,5935.20
473447,5861.51
474450,5935.20
475453,5935.20
476456,6135.14
477459,5935.20
478462,5935.20
479466,6059.57
480468,5788.51
481472,5910.56
482475,5935.20
483478,6135.14
484481,5910.56
485484,5910.56
486488,5861.51
487490,6084.68
488494,5935.20
489496,5910.56
490500,5764.33
491502,5910.56
492506,5935.20
493509,6135.14
494512,5935.20
495515,5910.56
496518,5861.51
497521,5935.20
498524,5984.72
499527,6009.59
500530,5886.00
501533,5959.92
502537,5837.10
503539,6160.49
504543,5910.56
505545,5910.56
506549,6034.54
507551,6084.68
508555,5959.92
509558,5959.92
510561,5740.22
511564,5886.00
512567,5910.56
513570,5935.20
514573,6185.92
515576,5910.56
516580,5886.00
517582,5984.72
518586,6059.57
519588,5910.56
520592,5910.56
521594,6109.87
522598,5910.56
523600,5935.20
524604,5935.20
525607,5910.56
526610,5959.92
527613,5861.51
528616,5716.18
529619,6160.49
530622,5812.77
531625,5935.20
532629,5668.34
533632,6160.49
534635,5935.20
535638,5959.92
536641,6059.57
537644,5788.51
538647,5935.20
539650,5935.20
540653,5984.72
541657,5837.10
542659,5886.00
543663,5861.51
544665,5984.72
545669,6009.59
546671,5910.56
547675,5910.56
548678,5837.10
549681,6034.54
550684,5910.56
551687,5910.56
552690,5910.56
553693,5764.33
554696,5692.22
555700,5935.20
556702,5935.20
557706,5984.72
558708,5620.78
559712,5740.22
560714,5984.72
561718,5935.20
562720,5861.51
563724,5886.00
564727,5837.10
565730,5692.22
566733,5740.22
567736,5812.77
568739,5886.00
569742,5959.92
570745,5861.51
571749,5984.72
572751,6211.44
573755,5788.51
574757,5788.51
575761,5886.00
576763,5935.20
577767,5910.56
578770,6009.59
579773,5959.92
580776,5959.92
581779,5959.92
582782,5959.92
583785,5935.20
584788,6009.59
585791,5886.00
586795,5886.00
587798,5935.20
588801,5788.51
589804,6009.59
590807,5861.51
591810,5886.00
592813,5861.51
593816,5837.10
594820,5837.10
595822,5886.00
596826,5910.56
597828,5837.10
598832,5837.10
599834,5935.20
600838,5935.20
601840,5910.56
602844,5886.00
603847,5935.20
604850,5984.72
605853,5935.20
606856,5910.56
607859,5837.10
608862,5910.56
609865,5886.00
610869,5861.51
611871,5935.20
612875,5935.20
613877,5812.77
614881,5935.20
615883,5837.10
616887,5959.92
617890,5910.56
618893,5910.56
619896,6034.54
620899,5861.51
621902,5886.00
622905,5764.33
623908,5959.92
624911,6009.59
625914,5886.00
626918,5886.00
627920,5935.20
628924,5935.20
629926,5984.72
630930,5886.00
631932,5886.00
632936,5886.00
633938,6084.68
634942,5910.56
635945,5959.92
636948,6135.14
637952,5886.00
638954,5886.00
639958,5764.33
640960,5886.00
641964,5886.00
642967,6109.87
643970,5910.56
644973,5861.51
645976,6059.57
646979,5984.72
647982,5910.56
648985,5812.77
649988,6034.54
650991,5910.56
651995,5837.10
652997,6034.54
654001,5886.00
655003,5886.00
656007,5910.56
657009,6034.54
658013,5837.10
659016,5886.00
660019,5716.18
661022,5812.77
662025,5861.51
663028,5788.51
664031,5886.00
665034,5886.00
666037,5959.92
667040,5788.51
668044,5886.00
669046,5910.56
670050,5740.22
671052,5861.51
672056,5886.00
673058,5692.22
674062,5788.51
675065,5837.10
676068,5886.00
677071,5984.72
678074,5935.20
679077,5886.00
680080,6034.54
681083,5861.51
682086,5910.56
683089,6135.14
684093,5886.00
685095,5910.56
686099,5886.00
687101,5861.51
688105,5910.56
689107,5984.72
690111,5984.72
691115,5861.51
692117,5886.00
693121,5861.51
694123,5910.56
695127,5886.00
696129,5959.92
697133,5861.51
698136,5910.56
699139,5910.56
700142,5910.56
701145,5886.00
702148,5692.22
703151,5861.51
704154,5861.51
705157,6109.87
706160,5886.00
707164,5935.20
708166,5861.51
709170,5812.77
710172,5861.51
711176,5837.10
712178,5910.56
713182,5910.56
714185,5597.12
715188,5886.00
716191,5886.00
717194,5740.22
718197,5788.51
719200,5886.00
720203,5740.22
721207,5644.52
722209,5837.10
723213,5886.00
724215,6059.57
725219,5935.20
726221,5837.10
727225,5740.22
728227,6059.57
729231,5886.00
730234,5935.20
731237,5861.51
732240,5886.00
733243,5886.00
734246,5837.10
735249,5984.72
736252,5812.77
737256,5886.00
738258,5740.22
739262,5886.00
740264,5861.51
741268,5886.00
742270,5984.72
743274,5837.10
744276,5861.51
745280,5910.56
746284,6034.54
747286,5910.56
748290,5861.51
749292,6059.57
750296,5935.20
751298,5861.51
752302,5861.51
753305,6084.68
754308,5886.00
755311,5886.00
756314,5861.51
757317,5716.18
758320,5764.33
759323,5861.51
760327,5861.51
761329,5935.20
762333,5910.56
763335,5861.51
764339,5886.00
765341,5910.56
766345,5788.51
767347,6009.59
768351,5861.51
769354,5886.00
770357,5886.00
771360,5886.00
772363,5935.20
773366,6084.68
774369,5959.92
775372,5861.51
776376,5812.77
777378,5886.00
778382,5740.22
779384,6109.87
780388,5984.72
781390,5837.10
782394,5861.51
783397,5861.51
784400,5984.72
785403,5764.33
786406,5935.20
787409,5910.56
788412,5716.18
789415,5740.22
790418,5886.00
791421,5886.00
792425,6109.87
793427,5812.77
794431,5886.00
795433,5837.10
796437,6084.68
797440,5861.51
798443,5910.56
799447,5692.22
800449,5910.56
801453,5886.00
802455,5788.51
803459,5764.33
804461,5861.51
805465,5861.51
806468,5886.00
807471,5788.51
808474,5861.51
809477,5984.72
810480,5984.72
811483,5812.77
812486,5861.51
813489,5886.00
814492,5861.51
815496,5861.51
816498,6059.57
817502,5935.20
818504,5837.10
819508,5861.51
820510,5910.56
821514,5910.56
822517,5740.22
823520,6034.54
824523,5740.22
825526,5812.77
826529,5861.51
827532,5886.00
828535,5861.51
829538,5886.00
830541,5812.77
831545,6109.87
832547,5837.10
833551,5837.10
834553,6009.59
835557,5764.33
836559,5886.00
837563,5984.72
838566,5788.51
839569,5886.00
840572,5837.10
841575,6034.54
842578,5837.10
843581,5837.10
844584,5716.18
845588,6109.87
846590,5837.10
847594,5837.10
848596,5959.92
849600,5886.00
850603,5910.56
851606,5764.33
852609,5837.10
853612,5861.51
854616,5837.10
855618,5861.51
856622,6009.59
857624,5837.10
858628,5861.51
859630,5861.51
860634,5935.20
861637,5886.00
862640,5886.00
863643,5886.00
864646,5812.77
865649,5837.10
866652,5861.51
867655,5886.00
868658,5764.33
869661,5812.77
870665,5812.77
871667,5886.00
872671,5910.56
873673,5644.52
874677,5861.51
875679,5861.51
876683,5788.51
877686,6059.57
878689,5886.00
879692,5837.10
880695,5812.77
881698,5812.77
882701,5812.77
883704,5886.00
884708,5886.00
885710,5886.00
886714,5837.10
887716,5959.92
888720,5812.77
889722,5837.10
890726,5812.77
891728,5959.92
892732,5886.00
893735,5837.10
894738,5935.20
895741,5812.77
896744,5959.92
897747,5837.10
898750,5861.51
899753,5837.10
900757,5644.52
901760,5886.00
902763,5764.33
903766,6135.14
904769,5812.77
905772,5837.10
906775,5812.77
907779,5668.34
908781,5861.51
909785,5837.10
910787,6059.57
911791,5837.10
912793,5910.56
913797,5644.52
914799,5788.51
915803,5886.00
916806,5959.92
917809,5837.10
918812,5837.10
919815,6034.54
920818,5861.51
921821,5788.51
922824,5861.51
923828,6084.68
924830,5764.33
925834,5837.10
926836,5984.72
927840,5935.20
928842,5886.00
929846,5812.77
930849,5837.10
931852,5861.51
932855,5959.92
933858,5812.77
934861,5837.10
935864,5861.51
936867,5764.33
937870,5886.00
938873,5837.10
939877,5910.56
940879,5861.51
941883,5861.51
942885,6009.59
943889,5740.22
944891,5812.77
945895,5886.00
946898,6009.59
947901,5886.00
948904,5812.77
949907,5692.22
950910,5837.10
951913,5837.10
952916,6034.54
953920,5959.92
954923,5861.51
955926,5910.56
956929,5573.52
957932,5837.10
958935,5837.10
959938,5837.10
960941,5886.00
961944,5812.77
962948,5716.18
963950,5812.77
964954,5837.10
965956,5716.18
966960,5812.77
967962,5886.00
968966,6059.57
969969,5837.10
970972,5812.77
971975,6009.59
972978,5861.51
973981,5861.51
974984,5692.22
975987,5812.77
976991,5788.51
977993,6034.54
978997,5861.51
979999,5935.20
981003,5716.18
982005,5861.51
983009,5716.18
984012,5861.51
985015,5764.33
986018,5837.10
987021,5837.10
988024,5668.34
989027,5861.51
990030,5886.00
991033,5812.77
992036,5861.51
993040,5837.10
994042,5692.22
995046,5812.77
996048,5837.10
997052,5764.33
998054,5837.10
999058,5886.00
1000061,5668.34
1001064,5886.00
1002067,5910.56
1003070,6034.54
1004073,5788.51
1005077,5959.92
1006080,5740.22
1007083,5886.00
1008086,6009.59
1009089,5764.33
1010093,5837.10
1011095,5959.92
1012099,5837.10
1013101,5861.51
1014105,5620.78
1015108,5861.51
1016111,5861.51
1017114,5886.00
1018117,5861.51
1019120,5812.77
1020124,5886.00
1021126,5764.33
1022130,5788.51
1023133,5812.77
1024136,5861.51
1025139,5812.77
1026142,5740.22
1027145,5740.22
1028149,5837.10
1029151,5861.51
1030155,6009.59
1031157,5861.51
1032161,5740.22
1033164,5644.52
1034167,5837.10
1035170,5764.33
1036173,5812.77
1037176,5861.51
1038180,6034.54
1039182,5886.00
1040186,5788.51
1041188,5597.12
1042192,5910.56
1043195,5910.56
1044198,5692.22
1045201,5861.51
1046205,5984.72
1047207,5812.77
1048211,5812.77
1049213,6009.59
1050217,5812.77
1051220,5837.10
1052223,5668.34
1053227,5837.10
1054229,5812.77
1055233,5620.78
1056236,5861.51
1057239,5837.10
1058242,6009.59
1059245,5837.10
1060248,5861.51
1061252,5788.51
1062254,5837.10
1063258,5764.33
1064260,5837.10
1065264,5861.51
1066267,5886.00
1067270,5788.51
1068273,5812.77
1069276,5788.51
1070279,5812.77
1071283,5861.51
1072285,5837.10
1073289,5861.51
1074292,5716.18
1075295,5886.00
1076298,5861.51
1077301,5861.51
1078304,5861.51
1079308,5910.56
1080310,5935.20
1081314,5812.77
1082316,5764.33
1083320,5910.56
1084323,5788.51
1085326,5959.92
1086329,5837.10
1087332,5861.51
1088335,5812.77
1089339,5812.77
1090341,5861.51
1091345,5668.34
1092347,5837.10
1093351,5910.56
1094354,5620.78
1095357,5812.77
1096360,5812.77
1097363,5812.77
1098366,5861.51
1099370,5837.10
1100372,5740.22
1101376,5861.51
1102380,5861.51
1103382,5886.00
1104386,5959.92
1105388,5764.33
1106392,5861.51
1107395,5861.51
1108398,5935.20
1109401,5910.56
1110404,5812.77
1111407,5812.77
1112411,5668.34
1113413,5716.18
1114417,5910.56
1115419,5740.22
1116423,5886.00
1117426,6084.68
1118429,5764.33
1119432,5812.77
1120435,5861.51
1121438,5959.92
1122442,6009.59
1123444,5837.10
1124448,5861.51
1125451,5886.00
1126454,5692.22
1127457,5812.77
1128460,5837.10
1129463,5861.51
1130467,5861.51
1131469,5837.10
1132473,5861.51
1133475,5837.10
1134479,5644.52
1135482,5886.00
1136485,5812.77
1137488,5812.77
1138491,5788.51
1139494,5984.72
1140498,5861.51
1141500,5812.77
1142504,5861.51
1143506,5935.20
1144510,5935.20
1145513,5812.77
1146516,5886.00
1147520,5692.22
1148522,5668.34
1149526,5910.56
1150529,5861.51
1151532,5740.22
1152535,5935.20
1153539,5812.77
1154541,5886.00
1155545,5692.22
1156547,5861.51
1157551,5837.10
1158554,5837.10
1159557,5910.56
1160560,5788.51
1161563,5837.10
1162566,6009.59
1163570,5984.72
1164572,5861.51
1165576,5837.10
1166578,5764.33
1167582,5764.33
1168585,5861.51
1169588,5837.10
1170591,5812.77
1171594,5668.34
1172597,5886.00
1173601,5837.10
1174603,5837.10
1175607,5788.51
1176609,5837.10
1177613,5788.51
1178616,5812.77
1179619,5644.52
1180622,5837.10
1181626,5837.10
1182628,5886.00
1183632,5910.56
1184634,5837.10
1185638,5788.51
1186641,5597.12
1187644,5668.34
1188647,5886.00
1189650,5837.10
1190653,5597.12
1191657,5886.00
1192659,5861.51
1193663,5861.51
1194665,6034.54
1195669,5788.51
1196673,5812.77
1197675,5886.00
1198679,5716.18
1199681,5740.22
1200685,5861.51
1201688,6009.59
1202691,5861.51
1203694,5837.10
1204698,5692.22
1205700,5812.77
1206704,5837.10
1207706,5644.52
1208710,5788.51
1209713,5837.10
1210716,5861.51
1211719,5861.51
1212722,5837.10
1213725,6034.54
1214729,5812.77
1215731,5837.10
1216735,5812.77
1217737,5764.33
1218741,5788.51
1219744,5716.18
1220747,5861.51
1221750,5812.77
1222754,5910.56
1223756,5764.33
1224760,5984.72
1225762,5837.10
1226766,5837.10
1227769,5812.77
1228772,5812.77
1229775,5861.51
1230778,6034.54
1231781,5837.10
1232785,5984.72
1233787,5788.51
1234791,5837.10
1235793,5812.77
1236797,5812.77
1237800,5861.51
1238803,5764.33
1239806,5764.33
1240809,5764.33
1241812,5837.10
1242816,5861.51
1243819,5861.51
1244822,5788.51
1245826,5740.22
1246828,5812.77
1247832,5861.51
1248834,5788.51
1249838,5837.10
1250841,5740.22
1251844,5861.51
1252847,5620.78
1253850,5861.51
1254853,5935.20
1255857,5886.00
1256859,5861.51
1257863,5861.51
1258865,5837.10
1259869,5764.33
1260872,5668.34
1261875,5837.10
1262878,5668.34
1263881,5788.51
1264884,5861.51
1265888,5716.18
1266890,5837.10
1267894,5837.10
1268897,6084.68
1269900,5861.51
1270903,5861.51
1271906,5620.78
1272909,5812.77
1273913,5812.77
1274915,5644.52
1275919,5861.51
1276921,5812.77
1277925,5812.77
1278928,5764.33
1279931,5935.20
1280934,5935.20
1281937,5837.10
1282940,5812.77
1283944,5597.12
1284946,5837.10
1285950,5861.51
1286953,6059.57
1287956,5812.77
1288960,5788.51
1289962,5620.78
1290966,5861.51
1291969,5837.10
1292972,5984.72
1293975,5788.51
1294978,5788.51
1295981,5788.51
1296985,5837.10
1297987,5812.77
1298991,5812.77
1299993,5764.33
1300997,5812.77
1302000,5740.22
1303003,5837.10
1304006,5812.77
1305009,5861.51
1306012,5886.00
1307016,5812.77
1308018,5812.77
1309022,5935.20
1310025,5886.00
1311028,5861.51
1312031,5837.10
1313034,5886.00
1314037,5935.20
1315041,5788.51
1316043,5861.51
1317047,5788.51
1318049,6009.59
1319053,5861.51
1320056,5812.77
1321059,5837.10
